	Length [m]	Value [°C]	
1	0.	1553.6	
2	4.5231e-003	1553.6	
3	9.0461e-003	1553.6	
4	1.3569e-002	1553.6	
5	1.8092e-002	1553.6	
6	2.2615e-002	1553.6	
7	2.7138e-002	1553.6	
8	3.1661e-002	1553.6	
9	3.6184e-002	1553.6	
10	4.0707e-002	1553.6	
11	4.5231e-002	1553.6	
12	4.9754e-002	1553.6	
13	5.4277e-002	1553.6	
14	5.88e-002	1553.6	
15	6.3323e-002	1553.4	
16	6.7846e-002	1552.	
17	7.2369e-002	1549.	
18	7.6892e-002	1544.1	
19	8.1415e-002	1537.4	
20	8.5938e-002	1529.	
21	9.0461e-002	1518.9	
22	9.4984e-002	1507.2	
23	9.9507e-002	1493.9	
24	0.10403	1479.4	
25	0.10855	1463.8	
26	0.11308	1447.4	
27	0.1176	1430.7	
28	0.12212	1414.2	
29	0.12665	1398.4	
30	0.13117	1383.9	
31	0.13569	1371.2	
32	0.14021	1360.6	
33	0.14474	1352.1	
34	0.14926	1345.6	
35	0.15378	1340.7	
36	0.15831	1337.3	
37	0.16283	1334.8	
38	0.16735	1333.2	
39	0.17188	1332.	
40	0.1764	1331.3	
41	0.18092	1330.8	
42	0.18545	1330.5	
43	0.18997	1330.2	
44	0.19449	1330.1	
45	0.19901	1330.	
46	0.20354	1329.9	
47	0.20806	1329.9	
48	0.21258	1329.9	
49	0.21711	1329.9	
